Time (s) intensità_laser_sole.1	Light Intensity (% of scale max) intensità_laser_sole.1
0.0	24.14803
0.04	24.17268
0.08	24.16158
0.12	24.16615
0.16	24.17015
0.2	24.16374
0.24	24.16708
0.28	24.1606
0.32	24.16922
0.36	24.16608
0.4	24.16849
0.44	24.16469
0.48	24.16408
0.52	24.16891
0.56	24.1624
0.6	24.15437
0.64	24.16153
0.68	24.16203
0.72	24.15996
0.76	24.1564
0.8	24.16255
0.84	24.15111
0.88	24.1526
0.92	24.16013
0.96	24.15585
1.0	24.15933
1.04	24.16122
1.08	24.16252
1.12	24.17213
1.16	24.15863
1.2	24.1693
1.24	24.17802
1.28	24.1671
1.32	24.15401
1.36	24.15796
1.4	24.16333
1.44	24.15335
1.48	24.16608
1.52	24.16621
1.56	24.15312
1.6	24.15578
1.64	24.16443
1.68	24.15697
1.72	24.15291
1.76	24.16629
1.8	24.15453
1.84	24.15822
1.88	24.16307
1.92	24.15825
1.96	24.15639
2.0	24.16457
2.04	24.15948
2.08	24.15811
2.12	24.16266
2.16	24.16086
2.2	24.153
2.24	24.15752
2.28	24.16289
2.32	24.16133
2.36	24.15868
2.4	24.17224
2.44	24.15453
2.48	24.14906
2.52	24.21953
2.56	24.23666
2.6	24.18198
2.64	24.1899
2.68	24.17177
2.72	24.17101
2.76	24.15543
2.8	24.15898
2.84	24.17682
2.88	24.13002
2.92	24.15778
2.96	24.15434
3.0	24.16579
3.04	24.15022
3.08	24.15207
3.12	24.16089
3.16	24.14108
3.2	24.15825
3.24	24.1579
3.28	24.14091
3.32	24.15645
3.36	24.15901
3.4	24.13918
3.44	24.1409
3.48	24.15822
3.52	24.14748
3.56	24.15208
3.6	24.14754
3.64	24.14819
3.68	24.1492
3.72	24.14772
3.76	24.14943
3.8	24.14763
3.84	24.14543
3.88	24.15446
3.92	24.14735
3.96	24.14558
4.0	24.14862
4.04	24.14671
4.08	24.14372
4.12	24.14616
4.16	24.14679
4.2	24.14565
4.24	24.14848
4.28	24.14458
4.32	24.14653
4.36	24.1416
4.4	24.14835
4.44	24.14397
4.48	24.14397
4.52	24.14647
4.56	24.14421
4.6	24.14359
4.64	24.15071
4.68	24.14197
4.72	24.14108
4.76	24.14841
4.8	24.14482
4.84	24.14189
4.88	24.14688
4.92	24.14374
4.96	24.14401
5.0	24.14925
5.04	24.15459
5.08	24.15433
5.12	24.14842
5.16	24.15614
5.2	24.15332
5.24	24.14673
5.28	24.14359
5.32	24.14812
5.36	24.12624
5.4	24.12511
5.44	24.03845
5.48	23.98328
5.52	23.94894
5.56	23.98007
5.6	23.97672
5.64	23.94821
5.68	23.95779
5.72	23.98271
5.76	23.96474
5.8	23.96521
5.84	23.96745
5.88	23.95326
5.92	23.95831
5.96	23.96748
6.0	23.95711
6.04	23.95325
6.08	23.97501
6.12	23.95757
6.16	23.95808
6.2	23.96353
6.24	23.9677
6.28	23.95486
6.32	23.96608
6.36	23.96696
6.4	23.95592
6.44	23.9697
6.48	23.96481
6.52	23.9498
6.56	23.96223
6.6	23.96552
6.64	23.95479
6.68	23.96777
6.72	23.96834
6.76	23.95815
6.8	23.96016
6.84	23.96214
6.88	23.95413
6.92	23.94965
6.96	23.95816
7.0	23.95613
7.04	23.95502
7.08	23.95782
7.12	23.96294
7.16	23.9422
7.2	23.95581
7.24	23.9584
7.28	23.95016
7.32	23.95596
7.36	23.95628
7.4	23.95361
7.44	23.95177
7.48	23.95816
7.52	23.95435
7.56	23.94983
7.6	23.95494
7.64	23.94884
7.68	23.95261
7.72	23.95288
7.76	23.95009
7.8	23.94334
7.84	23.95601
7.88	23.95245
7.92	23.94582
7.96	23.95541
8.0	23.95129
8.04	23.94473
8.08	23.95337
8.12	23.94922
8.16	23.95012
8.2	23.95311
8.24	23.95
8.28	23.94885
8.32	23.94629
8.36	23.95087
8.4	23.94928
8.44	23.94142
8.48	23.94928
8.52	23.94023
8.56	23.948
8.6	23.94443
8.64	23.9415
8.68	23.94707
8.72	23.94769
8.76	23.94255
8.8	23.93742
8.84	23.9406
8.88	23.93958
8.92	23.94359
8.96	23.94186
9.0	23.93903
9.04	23.94446
9.08	23.94427
9.12	23.93781
9.16	23.93427
9.2	23.94368
9.24	23.94449
9.28	23.94267
9.32	23.95451
9.36	23.94872
9.4	23.94908
9.44	23.94733
9.48	23.94281
9.52	23.93718
9.56	23.94087
9.6	23.93324
9.64	23.93341
9.68	23.938
9.72	23.94608
9.76	23.94273
9.8	23.94102
9.84	23.93513
9.88	23.94273
9.92	23.92166
9.96	23.94278
10.0	23.93735
10.04	23.9391
10.08	23.94864
10.12	23.93466
10.16	23.93077
10.2	23.93552
10.24	23.92773
10.28	23.92882
10.32	23.93759
10.36	23.94313
10.4	23.93478
10.44	23.93657
10.48	23.93776
10.52	23.93454
10.56	23.93285
10.6	23.93396
10.64	23.92719
10.68	23.93164
10.72	23.92519
10.76	23.9203
10.8	23.92216
10.84	23.93246
10.88	23.92662
10.92	23.93478
10.96	23.93518
11.0	23.93585
11.04	23.94119
11.08	23.92615
11.12	23.92749
11.16	23.9306
11.2	23.92737
11.24	23.93176
11.28	23.92804
11.32	23.92726
11.36	23.92738
11.4	23.92807
11.44	23.93022
11.48	23.92749
11.52	23.93129
11.56	23.9343
11.6	23.93916
11.64	23.93408
11.68	23.93576
11.72	23.9357
11.76	23.93546
11.8	23.94269
11.84	23.93378
11.88	23.93056
11.92	23.93549
11.96	23.93439
12.0	23.93834
12.04	23.9373
12.08	23.94148
12.12	23.94411
12.16	23.93599
12.2	23.93799
12.24	23.93492
12.28	23.93776
12.32	23.94659
12.36	23.94038
12.4	23.93597
12.44	23.93741
12.48	23.9276
12.52	23.92287
12.56	23.9285
12.6	23.91884
12.64	23.93913
12.68	23.93773
12.72	23.93658
12.76	23.93974
12.8	23.94084
12.84	23.93561
12.88	23.94077
12.92	23.94035
12.96	23.9369
13.0	23.93904
13.04	23.93822
13.08	23.92943
13.12	23.93427
13.16	23.93198
13.2	23.93433
13.24	23.93407
13.28	23.93208
13.32	23.9344
13.36	23.93459
13.4	23.93138
13.44	23.93372
13.48	23.93242
13.52	23.93742
13.56	23.93698
13.6	23.93628
13.64	23.94704
13.68	23.944
13.72	23.93889
13.76	23.94135
13.8	23.94141
13.84	23.94026
13.88	23.94237
13.92	23.93648
13.96	23.93826
14.0	23.93851
14.04	23.93814
14.08	23.94316
14.12	23.93889
14.16	23.94078
14.2	23.94122
14.24	23.93979
14.28	23.92723
14.32	23.93326
14.36	23.92737
14.4	23.93257
14.44	23.94681
14.48	23.94073
14.52	23.93884
14.56	23.93849
14.6	23.93977
14.64	23.94135
14.68	23.92799
14.72	23.93086
14.76	23.92726
14.8	23.93268
14.84	23.93834
14.88	23.9375
14.92	23.93605
14.96	23.93068
15.0	23.94281
15.04	23.93419
15.08	23.92844
15.12	23.9205
15.16	23.90784
15.2	23.91539
15.24	23.91301
15.28	23.91391
15.32	23.91649
15.36	23.92155
15.4	23.92737
15.44	23.92543
15.48	23.92348
15.52	23.9223
15.56	23.93224
15.6	23.9379
15.64	23.94618
15.68	23.94144
15.72	23.94017
15.76	23.93785
15.8	23.92377
15.84	23.91731
15.88	23.9285
15.92	23.93863
15.96	23.939
16.0	23.93723
16.04	23.93666
16.08	23.93542
16.12	23.93082
16.16	23.92841
16.2	23.92972
16.24	23.92729
16.28	23.93048
16.32	23.9288
16.36	23.92699
16.4	23.9294
16.44	23.91998
16.48	23.92125
16.52	23.92529
16.56	23.92986
16.6	23.93686
16.64	23.93242
16.68	23.93625
16.72	23.9399
16.76	23.93285
16.8	23.93686
16.84	23.93729
16.88	23.9333
16.92	23.93576
16.96	23.93341
17.0	23.93297
17.04	23.93419
17.08	23.92694
17.12	23.92415
17.16	23.92174
17.2	23.91525
17.24	23.91963
17.28	23.9149
17.32	23.9187
17.36	23.91571
17.4	23.9149
17.44	23.91603
17.48	23.91684
17.52	23.91838
17.56	23.91675
17.6	23.9127
17.64	23.91516
17.68	23.90508
17.72	23.90269
17.76	23.90656
17.8	23.89937
17.84	23.90794
17.88	23.91098
17.92	23.90891
17.96	23.91707
18.0	23.91682
18.04	23.91798
18.08	23.92291
18.12	23.91907
18.16	23.91859
18.2	23.92303
18.24	23.91983
18.28	23.916
18.32	23.91635
18.36	23.91748
18.4	23.91519
18.44	23.91209
18.48	23.91496
18.52	23.91795
18.56	23.91357
18.6	23.91811
18.64	23.91788
18.68	23.91031
18.72	23.91968
18.76	23.91646
18.8	23.91519
18.84	23.91811
18.88	23.90976
18.92	23.9167
18.96	23.91302
19.0	23.90584
19.04	23.91312
19.08	23.90729
19.12	23.90245
19.16	23.90065
19.2	23.90253
19.24	23.90111
19.28	23.8972
19.32	23.90179
19.36	23.90019
19.4	23.89574
19.44	23.90346
19.48	23.90073
19.52	23.89857
19.56	23.90276
19.6	23.89709
19.64	23.90421
19.68	23.90813
19.72	23.90045
19.76	23.90465
19.8	23.90533
19.84	23.90088
19.88	23.90335
19.92	23.90996
19.96	23.90456
20.0	23.91306
20.04	23.90633
20.08	23.90547
20.12	23.90906
20.16	23.90662
20.2	23.9024
20.24	23.90225
20.28	23.90134
20.32	23.90067
20.36	23.89964
20.4	23.9021
20.44	23.90114
20.48	23.89732
20.52	23.90282
20.56	23.9043
20.6	23.89914
20.64	23.89671
20.68	23.89653
20.72	23.89569
20.76	23.89389
20.8	23.89537
20.84	23.89207
20.88	23.88687
20.92	23.89223
20.96	23.89365
21.0	23.89397
21.04	23.89027
21.08	23.89052
21.12	23.89012
21.16	23.88483
21.2	23.88918
21.24	23.88568
21.28	23.88747
21.32	23.88898
21.36	23.88715
21.4	23.88945
21.44	23.88905
21.48	23.88718
21.52	23.88722
21.56	23.88826
21.6	23.88576
21.64	23.88596
21.68	23.88947
21.72	23.88364
21.76	23.88507
21.8	23.88626
21.84	23.88371
21.88	23.88667
21.92	23.8844
21.96	23.88771
22.0	23.88324
22.04	23.8847
22.08	23.88451
22.12	23.88611
22.16	23.88641
22.2	23.88176
22.24	23.88258
22.28	23.88335
22.32	23.88199
22.36	23.8837
22.4	23.88341
22.44	23.88348
22.48	23.88475
22.52	23.88286
22.56	23.87946
22.6	23.88165
22.64	23.87666
22.68	23.88162
22.72	23.88435
22.76	23.88132
22.8	23.88405
22.84	23.85599
22.88	23.8813
22.92	23.89313
22.96	23.88902
23.0	23.89236
23.04	23.89395
23.08	23.89064
23.12	23.89247
23.16	23.89153
23.2	23.89319
23.24	23.89081
23.28	23.88721
23.32	23.88788
23.36	23.8909
23.4	23.88805
23.44	23.88393
23.48	23.88849
23.52	23.89252
23.56	23.88979
23.6	23.88977
23.64	23.89537
23.68	23.89153
23.72	23.89844
23.76	23.88718
23.8	23.88885
23.84	23.89679
23.88	23.88721
23.92	23.89757
23.96	23.89337
24.0	23.89043
24.04	23.8943
24.08	23.88942
24.12	23.8885
24.16	23.89439
24.2	23.88802
24.24	23.89351
24.28	23.89227
24.32	23.88591
24.36	23.88736
24.4	23.88849
24.44	23.88789
24.48	23.88913
24.52	23.88593
24.56	23.8911
24.6	23.89012
24.64	23.89188
24.68	23.89294
24.72	23.89153
24.76	23.89307
24.8	23.89525
24.84	23.89636
24.88	23.89131
24.92	23.89453
24.96	23.89201
25.0	23.89621
25.04	23.89194
25.08	23.8929
25.12	23.89429
25.16	23.89328
25.2	23.88457
25.24	23.89249
25.28	23.88826
25.32	23.89146
25.36	23.88699
25.4	23.8853
25.44	23.88789
25.48	23.88509
25.52	23.89355
25.56	23.89311
25.6	23.88631
25.64	23.89253
25.68	23.88739
25.72	23.88461
25.76	23.89352
25.8	23.88623
25.84	23.88278
25.88	23.89333
25.92	23.89459
25.96	23.8878
26.0	23.888
26.04	23.89082
26.08	23.88672
26.12	23.88725
26.16	23.8934
26.2	23.8886
26.24	23.88872
26.28	23.88995
26.32	23.88693
26.36	23.88797
26.4	23.89096
26.44	23.88182
26.48	23.88667
26.52	23.88863
26.56	23.88541
26.6	23.89449
26.64	23.89365
26.68	23.88721
26.72	23.89229
26.76	23.89247
26.8	23.8898
26.84	23.89505
26.88	23.88904
26.92	23.88953
26.96	23.88928
27.0	23.89015
27.04	23.88797
27.08	23.89247
27.12	23.89699
27.16	23.8912
27.2	23.89317
27.24	23.89204
27.28	23.88582
27.32	23.89101
27.36	23.88774
27.4	23.88503
27.44	23.88445
27.48	23.8833
27.52	23.88312
27.56	23.88756
27.6	23.88666
27.64	23.8871
27.68	23.88849
27.72	23.89137
27.76	23.88522
27.8	23.88901
27.84	23.8882
27.88	23.89276
27.92	23.89845
27.96	23.89206
28.0	23.89476
28.04	23.89937
28.08	23.89888
28.12	23.89619
28.16	23.8967
28.2	23.87642
28.24	23.89821
28.28	23.89262
28.32	23.89923
28.36	23.89029
28.4	23.89354
28.44	23.90088
28.48	23.89255
28.52	23.88983
28.56	23.89305
28.6	23.8943
28.64	23.89378
28.68	23.89513
28.72	23.89261
28.76	23.89076
28.8	23.89536
28.84	23.89069
28.88	23.89157
28.92	23.89034
28.96	23.88889
29.0	23.89297
29.04	23.89226
29.08	23.89888
29.12	23.89058
29.16	23.89275
29.2	23.89565
29.24	23.89034
29.28	23.89494
29.32	23.89569
29.36	23.89487
29.4	23.8905
29.44	23.89378
29.48	23.89363
29.52	23.89105
29.56	23.89313
29.6	23.89352
29.64	23.88766
29.68	23.89612
29.72	23.89752
29.76	23.8918
29.8	23.89786
29.84	23.89738
29.88	23.88849
29.92	23.89032
29.96	23.89163
30.0	23.89125
30.04	23.88902
30.08	23.88762
30.12	23.89307
30.16	23.88739
30.2	23.88802
30.24	23.89442
30.28	23.88988
30.32	23.8893
30.36	23.89182
30.4	23.89284
30.44	23.88979
30.48	23.89064
30.52	23.88728
30.56	23.8867
30.6	23.8868
30.64	23.88519
30.68	23.88565
30.72	23.88411
30.76	23.8848
30.8	23.88405
30.84	23.88686
30.88	23.8876
30.92	23.8806
30.96	23.88835
31.0	23.89111
31.04	23.88977
31.08	23.89433
31.12	23.89334
31.16	23.88722
31.2	23.89531
31.24	23.89166
31.28	23.89299
31.32	23.90146
31.36	23.89626
31.4	23.90105
31.44	23.9028
31.48	23.90341
31.52	23.90462
31.56	23.90781
31.6	23.90411
31.64	23.89938
31.68	23.89748
31.72	23.90007
31.76	23.89357
31.8	23.89656
31.84	23.89648
31.88	23.8936
31.92	23.89003
31.96	23.89407
32.0	23.89049
32.04	23.88472
32.08	23.8848
32.12	23.87892
32.16	23.87859
32.2	23.86534
32.24	23.87013
32.28	23.87978
32.32	23.87166
32.36	23.87062
32.4	23.86871
32.44	23.85902
32.48	23.86183
32.52	23.86014
32.56	23.87189
32.6	23.88167
32.64	23.87831
32.68	23.88176
32.72	23.88232
32.76	23.87865
32.8	23.88655
32.84	23.88091
32.88	23.87567
32.92	23.8701
32.96	23.86447
33.0	23.86186
33.04	23.87314
33.08	23.8756
33.12	23.88483
33.16	23.88666
33.2	23.88666
33.24	23.88394
33.28	23.88469
33.32	23.88365
33.36	23.89055
33.4	23.88969
33.44	23.88838
33.48	23.89102
33.52	23.89606
33.56	23.89186
33.6	23.88504
33.64	23.89134
33.68	23.88805
33.72	23.89532
33.76	23.89333
33.8	23.89069
33.84	23.89452
33.88	23.89302
33.92	23.89626
33.96	23.88776
34.0	23.88255
34.04	23.89119
34.08	23.89841
34.12	23.89543
34.16	23.89316
34.2	23.89934
34.24	23.89496
34.28	23.90144
34.32	23.90494
34.36	23.89777
34.4	23.90317
34.44	23.89624
34.48	23.89711
34.52	23.8922
34.56	23.89047
34.6	23.88956
34.64	23.89012
34.68	23.88838
34.72	23.8844
34.76	23.88461
34.8	23.88747
34.84	23.88623
34.88	23.8912
34.92	23.89287
34.96	23.89111
35.0	23.89853
35.04	23.90071
35.08	23.89485
35.12	23.89984
35.16	23.89381
35.2	23.89249
35.24	23.87083
35.28	23.8819
35.32	23.89034
35.36	23.89769
35.4	23.89049
35.44	23.8806
35.48	23.88361
35.52	23.88173
35.56	23.88127
35.6	23.87846
35.64	23.87463
35.68	23.88344
35.72	23.87471
35.76	23.87238
35.8	23.87955
35.84	23.88634
35.88	23.89304
35.92	23.89972
35.96	23.90404
36.0	23.91722
36.04	23.91356
36.08	23.91364
36.12	23.90729
36.16	23.89996
36.2	23.89839
36.24	23.8965
36.28	23.87762
36.32	23.8838
36.36	23.88327
36.4	23.88637
36.44	23.88625
36.48	23.88062
36.52	23.88237
36.56	23.87582
36.6	23.8795
36.64	23.87781
36.68	23.87708
36.72	23.88614
36.76	23.88107
36.8	23.88203
36.84	23.87811
36.88	23.87776
36.92	23.87224
36.96	23.87579
37.0	23.86861
37.04	23.87065
37.08	23.86935
37.12	23.87102
37.16	23.87064
37.2	23.87035
37.24	23.86842
37.28	23.8661
37.32	23.86671
37.36	23.87025
37.4	23.87082
37.44	23.87651
37.48	23.87912
37.52	23.86977
37.56	23.86841
37.6	23.87529
37.64	23.86995
37.68	23.87982
37.72	23.88121
37.76	23.87642
37.8	23.88237
37.84	23.87802
37.88	23.87498
37.92	23.8824
37.96	23.87273
38.0	23.87704
38.04	23.87064
38.08	23.86604
38.12	23.87532
38.16	23.87393
38.2	23.87939
38.24	23.88243
38.28	23.87589
38.32	23.87422
38.36	23.87685
38.4	23.86684
38.44	23.86079
38.48	23.8542
38.52	23.83699
38.56	23.83244
38.6	23.83295
38.64	23.84088
38.68	23.84232
38.72	23.85382
38.76	23.86388
38.8	23.8689
38.84	23.8644
38.88	23.86079
38.92	23.85924
38.96	23.86345
39.0	23.86438
39.04	23.873
39.08	23.87849
39.12	23.87775
39.16	23.87556
39.2	23.86902
39.24	23.86555
39.28	23.85818
39.32	23.85362
39.36	23.8606
39.4	23.87146
39.44	23.88219
39.48	23.88481
39.52	23.88365
39.56	23.88318
39.6	23.88182
39.64	23.88461
39.68	23.88716
39.72	23.88396
39.76	23.88277
39.8	23.87909
39.84	23.87923
39.88	23.8848
39.92	23.88078
39.96	23.87907
40.0	23.87329
40.04	23.87241
40.08	23.87213
40.12	23.86232
40.16	23.86673
40.2	23.87318
40.24	23.87267
40.28	23.86913
40.32	23.86681
40.36	23.86555
40.4	23.86571
40.44	23.86592
40.48	23.8705
40.52	23.87605
40.56	23.87177
40.6	23.87376
40.64	23.88257
40.68	23.89005
40.72	23.8945
40.76	23.89941
40.8	23.89308
40.84	23.88493
40.88	23.8812
40.92	23.87564
40.96	23.8757
41.0	23.87305
41.04	23.87471
41.08	23.88141
41.12	23.88033
41.16	23.88043
41.2	23.88866
41.24	23.88417
41.28	23.8905
41.32	23.89864
41.36	23.89546
41.4	23.90356
41.44	23.90266
41.48	23.90222
41.52	23.89952
41.56	23.89664
41.6	23.88689
41.64	23.87935
41.68	23.87558
41.72	23.86302
41.76	23.86487
41.8	23.85692
41.84	23.85677
41.88	23.86456
41.92	23.86649
41.96	23.88271
42.0	23.88536
42.04	23.87997
42.08	23.88461
42.12	23.87082
42.16	23.86349
42.2	23.87097
42.24	23.86983
42.28	23.87788
42.32	23.87372
42.36	23.87117
42.4	23.87445
42.44	23.87587
42.48	23.87375
42.52	23.87369
42.56	23.87535
42.6	23.8727
42.64	23.86636
42.68	23.87115
42.72	23.86987
42.76	23.8638
42.8	23.87256
42.84	23.86777
42.88	23.87505
42.92	23.88278
42.96	23.88242
43.0	23.88669
43.04	23.89314
43.08	23.8945
43.12	23.89639
43.16	23.90036
43.2	23.90022
43.24	23.90739
43.28	23.90514
43.32	23.90428
43.36	23.89293
43.4	23.886
43.44	23.88264
43.48	23.87764
43.52	23.86966
43.56	23.87398
43.6	23.86986
43.64	23.86612
43.68	23.87932
43.72	23.88159
43.76	23.89369
43.8	23.89632
43.84	23.89633
43.88	23.90808
43.92	23.90643
43.96	23.90141
44.0	23.90643
44.04	23.91362
44.08	23.91798
44.12	23.90819
44.16	23.91553
44.2	23.91939
44.24	23.91505
44.28	23.91792
44.32	23.91914
44.36	23.918
44.4	23.92064
44.44	23.92387
44.48	23.92577
44.52	23.9297
44.56	23.92834
44.6	23.93423
44.64	23.92937
44.68	23.91727
44.72	23.91615
44.76	23.91522
44.8	23.90555
44.84	23.89507
44.88	23.88466
44.92	23.8813
44.96	23.87811
45.0	23.881
45.04	23.88081
45.08	23.8775
45.12	23.88501
45.16	23.88564
45.2	23.88425
45.24	23.88324
45.28	23.88231
45.32	23.88582
45.36	23.88564
45.4	23.88742
45.44	23.88808
45.48	23.89101
45.52	23.88763
45.56	23.89911
45.6	23.91064
45.64	23.90083
45.68	23.90025
45.72	23.90623
45.76	23.91142
45.8	23.9213
45.84	23.92734
45.88	23.92677
45.92	23.90437
45.96	23.89766
46.0	23.91019
46.04	23.91255
46.08	23.92313
46.12	23.93123
46.16	23.92467
46.2	23.92468
46.24	23.92998
46.28	23.92448
46.32	23.92284
46.36	23.92468
46.4	23.91643
46.44	23.93202
46.48	23.92375
46.52	23.92467
46.56	23.91901
46.6	23.90488
46.64	23.91623
46.68	23.91684
46.72	23.91505
46.76	23.91245
46.8	23.90695
46.84	23.91692
46.88	23.92224
46.92	23.91653
46.96	23.91147
47.0	23.91286
47.04	23.91087
47.08	23.92003
47.12	23.91609
47.16	23.91684
47.2	23.92346
47.24	23.92751
47.28	23.92763
47.32	23.92888
47.36	23.92453
47.4	23.91785
47.44	23.91087
47.48	23.91306
47.52	23.91211
47.56	23.91385
47.6	23.92204
47.64	23.9333
47.68	23.93745
47.72	23.95392
47.76	23.95837
47.8	23.94777
47.84	23.93303
47.88	23.93492
47.92	23.92926
47.96	23.92104
48.0	23.91081
48.04	23.91499
48.08	23.91321
48.12	23.9126
48.16	23.90788
48.2	23.90404
48.24	23.89905
48.28	23.89861
48.32	23.89891
48.36	23.90974
48.4	23.9068
48.44	23.91467
48.48	23.91678
48.52	23.91652
48.56	23.9156
48.6	23.90842
48.64	23.89645
48.68	23.89906
48.72	23.88838
48.76	23.88336
48.8	23.89224
48.84	23.89798
48.88	23.89256
48.92	23.88712
48.96	23.88776
49.0	23.89864
49.04	23.89612
49.08	23.90277
49.12	23.91211
49.16	23.9142
49.2	23.91324
49.24	23.91336
49.28	23.91698
49.32	23.91774
49.36	23.90889
49.4	23.91168
49.44	23.91248
49.48	23.90945
49.52	23.91118
49.56	23.91273
49.6	23.91325
49.64	23.91151
49.68	23.9048
49.72	23.89818
49.76	23.90205
49.8	23.90068
49.84	23.90086
49.88	23.90251
49.92	23.91177
49.96	23.92159
50.0	23.93242
50.04	23.93373
50.08	23.9346
50.12	23.92473
50.16	23.91415
50.2	23.91658
50.24	23.92451
50.28	23.92867
50.32	23.92566
50.36	23.93628
50.4	23.93484
50.44	23.92738
50.48	23.92349
50.52	23.92859
50.56	23.92802
50.6	23.92606
50.64	23.92368
50.68	23.92006
50.72	23.91711
50.76	23.91737
50.8	23.92119
50.84	23.91434
50.88	23.91841
50.92	23.91714
50.96	23.9086
51.0	23.90454
51.04	23.90382
51.08	23.89853
51.12	23.89566
51.16	23.8959
51.2	23.89665
51.24	23.89207
51.28	23.88959
51.32	23.89223
51.36	23.8889
51.4	23.89023
51.44	23.89908
51.48	23.89818
51.52	23.89975
51.56	23.91089
51.6	23.90936
51.64	23.909
51.68	23.9082
51.72	23.91176
51.76	23.90929
51.8	23.90733
51.84	23.90518
51.88	23.9084
51.92	23.90248
51.96	23.91043
52.0	23.90625
52.04	23.89868
52.08	23.89685
52.12	23.89882
52.16	23.89708
52.2	23.89763
52.24	23.89375
52.28	23.89952
52.32	23.89584
52.36	23.89735
52.4	23.90584
52.44	23.90161
52.48	23.90367
52.52	23.9034
52.56	23.90274
52.6	23.90308
52.64	23.90445
52.68	23.89951
52.72	23.89853
52.76	23.89885
52.8	23.89818
52.84	23.89249
52.88	23.89011
52.92	23.88873
52.96	23.89127
53.0	23.88799
53.04	23.89352
53.08	23.8949
53.12	23.8988
53.16	23.89783
53.2	23.90016
53.24	23.90578
53.28	23.90506
53.32	23.90099
53.36	23.90616
53.4	23.89951
53.44	23.89891
53.48	23.90057
53.52	23.89973
53.56	23.8999
53.6	23.89462
53.64	23.89397
53.68	23.90178
53.72	23.89342
53.76	23.89491
53.8	23.89677
53.84	23.89513
53.88	23.89267
53.92	23.88875
53.96	23.89412
54.0	23.89238
54.04	23.88303
54.08	23.89067
54.12	23.89017
54.16	23.88895
54.2	23.89021
54.24	23.88968
54.28	23.89172
54.32	23.88965
54.36	23.89282
54.4	23.89934
54.44	23.89665
54.48	23.89528
54.52	23.90234
54.56	23.89969
54.6	23.89691
54.64	23.90321
54.68	23.89719
54.72	23.89316
54.76	23.89555
54.8	23.89302
54.84	23.892
